LabVIEW Measurement	
Writer_Version	2
Reader_Version	2
Separator	Tab
Decimal_Separator	.
Multi_Headings	No
X_Columns	No
Time_Pref	Absolute
Operator	mechlab
Description	Data file
Date	2022/03/25
Time	13:03:32.2786002159118652344
***End_of_Header***	
	
Channels	9									
Samples	1	1	1	1	1	1	1	1	1	
Date	2022/03/25	2022/03/25	2022/03/25	2022/03/25	2022/03/25	2022/03/25	2022/03/25	2022/03/25	2022/03/25	
Time	13:03:32.2786002159118652344	13:03:32.29759979248046875	13:03:32.3165998458862304687	13:03:32.3336000442504882812	13:03:32.3516001701354980469	13:03:32.3685998916625976562	13:03:32.3856000900268554687	13:03:32.4056000709533691407	13:03:32.3336000442504882812	
X_Dimension	Time	Time	Time	Time	Time	Time	Time	Time	Time	
X0	0.0000000000000000E+0	0.0000000000000000E+0	0.0000000000000000E+0	0.0000000000000000E+0	0.0000000000000000E+0	0.0000000000000000E+0	0.0000000000000000E+0	0.0000000000000000E+0	0.0000000000000000E+0	
Delta_X	1.000000	1.000000	1.000000	1.000000	1.000000	1.000000	1.000000	1.000000	1.000000	
***End_of_Header***										
X_Value	Untitled	Untitled 1	Untitled 2	Untitled 3	Untitled 4	Untitled 5	Untitled 6	Untitled 7	Untitled 8	Comment
	0.000000	187.485258	17.259924	84.109531	-2.756760E-5	-3.025872E-5	-4.195274E-5	-3.459528E-5	-3.267169
	0.996000	186.025399	17.285539	84.116425	-2.724618E-5	-2.993435E-5	-4.320827E-5	-3.522258E-5	-3.260275
	1.996000	181.452604	17.267599	84.121955	-2.844891E-5	-3.036335E-5	-4.250727E-5	-3.482529E-5	-3.254745
	2.996000	176.149880	17.286519	84.126015	-2.720470E-5	-2.998666E-5	-4.265375E-5	-3.497166E-5	-3.250685
	3.996000	188.891446	17.282762	84.097036	-2.795123E-5	-2.993435E-5	-4.322919E-5	-3.486711E-5	-3.279664
	4.996000	183.030540	17.282614	84.104386	-2.803418E-5	-2.942163E-5	-4.221431E-5	-3.490893E-5	-3.272314
	5.996000	175.699041	17.270323	84.084016	-2.745355E-5	-2.924374E-5	-4.319781E-5	-3.523303E-5	-3.292684
	6.996000	182.966135	17.273382	84.097981	-2.817933E-5	-2.976693E-5	-4.244449E-5	-3.400980E-5	-3.278719
	7.996000	169.408765	17.283714	84.087621	-2.774387E-5	-2.980878E-5	-4.258051E-5	-3.455346E-5	-3.289079
	8.996000	177.491663	17.269733	84.093641	-2.605382E-5	-2.986110E-5	-4.338614E-5	-3.443846E-5	-3.283059
	9.996000	188.440607	17.281178	84.096476	-2.750538E-5	-2.847989E-5	-4.182719E-5	-3.459528E-5	-3.280224
	10.996000	179.305752	17.274711	83.695381	-2.691440E-5	-2.891937E-5	-4.240264E-5	-3.515985E-5	-3.681319
