LabVIEW Measurement	
Writer_Version	2
Reader_Version	2
Separator	Tab
Decimal_Separator	.
Multi_Headings	No
X_Columns	No
Time_Pref	Absolute
Operator	mechlab
Description	Data file
Date	2022/03/25
Time	13:05:50.4425997734069824219
***End_of_Header***	
	
Channels	9									
Samples	1	1	1	1	1	1	1	1	1	
Date	2022/03/25	2022/03/25	2022/03/25	2022/03/25	2022/03/25	2022/03/25	2022/03/25	2022/03/25	2022/03/25	
Time	13:05:50.4425997734069824219	13:05:50.4656000137329101563	13:05:50.484600067138671875	13:05:50.5015997886657714844	13:05:50.5185999870300292969	13:05:50.5385999679565429688	13:05:50.5566000938415527344	13:05:50.5746002197265625	13:05:50.5015997886657714844	
X_Dimension	Time	Time	Time	Time	Time	Time	Time	Time	Time	
X0	0.0000000000000000E+0	0.0000000000000000E+0	0.0000000000000000E+0	0.0000000000000000E+0	0.0000000000000000E+0	0.0000000000000000E+0	0.0000000000000000E+0	0.0000000000000000E+0	0.0000000000000000E+0	
Delta_X	1.000000	1.000000	1.000000	1.000000	1.000000	1.000000	1.000000	1.000000	1.000000	
***End_of_Header***										
X_Value	Untitled	Untitled 1	Untitled 2	Untitled 3	Untitled 4	Untitled 5	Untitled 6	Untitled 7	Untitled 8	Comment
	0.000000	194.237107	17.256664	83.300097	-3.067809E-5	-3.248747E-5	-4.497647E-5	-3.708356E-5	-0.395303
	0.832000	167.755689	17.258475	83.286237	-2.969310E-5	-3.131555E-5	-4.516480E-5	-3.763767E-5	-0.409163
	1.832000	179.552640	17.262326	83.305277	-2.935095E-5	-3.149343E-5	-4.533221E-5	-3.794086E-5	-0.390123
	2.832000	175.366279	17.244802	83.312522	-2.979679E-5	-3.278045E-5	-4.543683E-5	-3.791995E-5	-0.382878
	3.832000	174.206979	17.228969	83.304297	-3.010784E-5	-3.266535E-5	-4.533220E-5	-3.788858E-5	-0.391103
	4.832000	179.520438	17.227788	83.265797	-2.918506E-5	-3.192244E-5	-4.585534E-5	-3.849497E-5	-0.429603
	5.832000	180.003479	17.188997	83.279412	-2.925764E-5	-3.253979E-5	-4.567747E-5	-3.825451E-5	-0.415988
	6.832000	189.685781	17.161919	83.223483	-2.974495E-5	-3.195383E-5	-4.461028E-5	-3.687446E-5	-0.471917
	7.832000	165.791320	17.129864	83.215188	-3.022188E-5	-3.255025E-5	-4.548914E-5	-3.681173E-5	-0.480212
	8.832000	179.198410	17.117653	83.281057	-3.003526E-5	-3.327224E-5	-4.578210E-5	-3.717766E-5	-0.414343
	9.832000	187.753614	17.102692	83.205808	-2.897769E-5	-3.333502E-5	-4.539498E-5	-3.794086E-5	-0.489592
	10.832000	187.195433	17.052308	83.215328	-3.063661E-5	-3.236191E-5	-4.499740E-5	-3.773176E-5	-0.480072
	11.832000	170.396317	17.034462	83.210533	-3.099951E-5	-3.305250E-5	-4.455797E-5	-3.675945E-5	-0.484867
	12.832000	179.874668	17.022533	83.207278	-3.132092E-5	-3.288509E-5	-4.584488E-5	-3.667582E-5	-0.488122
	13.832000	191.961444	16.978750	83.188134	-2.897769E-5	-3.247701E-5	-4.642033E-5	-3.755403E-5	-0.507266
	14.832000	173.208693	16.979260	83.188379	-3.041888E-5	-3.210032E-5	-4.478815E-5	-3.670718E-5	-0.507021
	15.832000	189.878998	16.960556	83.208958	-2.989010E-5	-3.201661E-5	-4.483000E-5	-3.728220E-5	-0.486442
	16.832000	187.721412	16.929064	83.195903	-3.012857E-5	-3.289555E-5	-4.503925E-5	-3.664445E-5	-0.499497
	17.832000	184.984176	16.914076	83.170599	-2.964126E-5	-3.167131E-5	-4.501833E-5	-3.619489E-5	-0.524801
	18.832000	172.929602	16.902671	83.194013	-2.968274E-5	-3.183873E-5	-4.556239E-5	-3.656081E-5	-0.501387
	19.832000	172.661246	16.874721	83.170109	-2.990047E-5	-3.226774E-5	-4.472537E-5	-3.591261E-5	-0.525291
	20.832000	168.496353	16.872520	83.152154	-2.924727E-5	-3.246654E-5	-4.591812E-5	-3.747039E-5	-0.543246
	21.832000	174.936909	16.842169	83.189848	-3.075067E-5	-3.337688E-5	-4.642033E-5	-3.695810E-5	-0.505552
	22.832000	198.906510	16.810248	83.160554	-2.922653E-5	-3.148297E-5	-4.516480E-5	-3.738675E-5	-0.534846
	23.832000	172.961805	16.802599	83.148094	-3.010783E-5	-3.257118E-5	-4.564609E-5	-3.779449E-5	-0.547306
	24.832000	171.899114	16.777977	83.143579	-2.891548E-5	-3.252933E-5	-4.546822E-5	-3.708356E-5	-0.551821
	25.832000	172.639777	16.761406	83.147429	-2.888438E-5	-3.227820E-5	-4.605413E-5	-3.726129E-5	-0.547971
	26.832000	187.453055	16.760547	83.135879	-2.947537E-5	-3.203754E-5	-4.507064E-5	-3.652945E-5	-0.559521
	27.832000	175.699041	16.745170	83.143999	-2.894659E-5	-3.191197E-5	-4.577164E-5	-3.645626E-5	-0.551401
	28.832000	183.352568	16.710458	83.142144	-2.871849E-5	-3.157714E-5	-4.452658E-5	-3.553623E-5	-0.553256
	29.832000	177.459460	16.696383	83.142704	-2.862517E-5	-3.120045E-5	-4.474629E-5	-3.662354E-5	-0.552696
	30.832000	178.393340	16.681475	83.143579	-2.865628E-5	-3.128416E-5	-4.475676E-5	-3.575578E-5	-0.551821
	31.832000	179.316487	16.660463	83.194888	-2.919542E-5	-3.145157E-5	-4.502879E-5	-3.691628E-5	-0.500512
	32.832000	173.638064	16.660838	83.239583	-3.003526E-5	-3.172363E-5	-4.447426E-5	-3.529577E-5	-0.455817
	33.832000	182.418688	16.637491	83.276437	-2.901916E-5	-3.136786E-5	-4.508110E-5	-3.610080E-5	-0.418963
	34.832000	171.501946	16.621604	83.320887	-2.975531E-5	-3.085515E-5	-4.430686E-5	-3.704174E-5	-0.374513
	35.832000	176.708062	16.617713	83.325752	-2.989010E-5	-3.174456E-5	-4.553100E-5	-3.678037E-5	-0.369648
	36.832000	189.406690	16.593440	83.326242	-2.955832E-5	-3.210032E-5	-4.493462E-5	-3.714629E-5	-0.369158
	37.832000	188.193719	16.572052	83.327816	-2.924727E-5	-3.109581E-5	-4.442195E-5	-3.798268E-5	-0.367584
	38.832000	177.781488	16.565276	83.400160	-3.008710E-5	-3.154575E-5	-4.380465E-5	-3.623671E-5	-0.295240
	39.832000	180.776346	16.549872	83.403030	-2.821044E-5	-3.069819E-5	-4.439056E-5	-3.770040E-5	-0.292370
	40.832000	161.916252	16.535448	83.395436	-2.855259E-5	-3.118998E-5	-4.473583E-5	-3.767949E-5	-0.299964
	41.832000	169.859604	16.518326	83.386896	-2.834522E-5	-3.125277E-5	-4.342799E-5	-3.765858E-5	-0.308504
	42.832000	168.152857	16.504720	83.359596	-2.857333E-5	-3.083422E-5	-4.419177E-5	-3.653990E-5	-0.335804
	43.832000	172.435826	16.472316	83.369676	-2.867701E-5	-3.128416E-5	-4.348031E-5	-3.658172E-5	-0.325724
	44.832000	159.050205	16.476127	83.362151	-2.833486E-5	-3.088654E-5	-4.375234E-5	-3.640399E-5	-0.333249
	45.832000	142.057873	16.462212	83.342691	-2.874958E-5	-3.227820E-5	-4.453704E-5	-3.770040E-5	-0.352709
	46.832000	146.222765	16.439616	83.308532	-2.965163E-5	-3.135740E-5	-4.355355E-5	-3.594397E-5	-0.386868
	47.832000	143.968571	16.410754	83.277417	-2.826228E-5	-3.166085E-5	-4.558331E-5	-3.652945E-5	-0.417983
	48.832000	144.870249	16.411305	83.222643	-2.950647E-5	-3.162946E-5	-4.410807E-5	-3.650854E-5	-0.472757
	49.832000	137.742700	16.393365	83.210393	-2.926800E-5	-3.026918E-5	-4.486138E-5	-3.688492E-5	-0.485007
	50.832000	123.058234	16.375841	83.212003	-2.984863E-5	-3.177594E-5	-4.588673E-5	-3.708356E-5	-0.483397
	51.832000	125.022603	16.355982	83.150824	-2.831412E-5	-3.178641E-5	-4.483000E-5	-3.614261E-5	-0.544576
	52.832000	122.553724	16.346657	83.146799	-2.892585E-5	-3.127369E-5	-4.473583E-5	-3.636217E-5	-0.548601
	53.832000	118.539111	16.322451	83.143404	-2.815859E-5	-3.097025E-5	-4.493462E-5	-3.622625E-5	-0.551996
	54.832000	113.021701	16.304793	83.124294	-2.886364E-5	-3.078190E-5	-4.519619E-5	-3.610080E-5	-0.571106
	55.832000	105.454049	16.298902	83.113305	-2.898806E-5	-3.207939E-5	-4.546822E-5	-3.698947E-5	-0.582095
	56.832000	95.535593	16.289711	83.091465	-2.901917E-5	-3.182826E-5	-4.562516E-5	-3.663400E-5	-0.603935
	57.832000	86.991123	16.231437	83.109245	-2.896732E-5	-3.253979E-5	-4.587627E-5	-3.674900E-5	-0.586155
	58.832000	81.420042	16.252436	83.105500	-2.938205E-5	-3.118999E-5	-4.527989E-5	-3.620535E-5	-0.589900
	59.832000	76.450080	16.228082	83.049571	-2.933021E-5	-3.153528E-5	-4.486139E-5	-3.591261E-5	-0.645829
	60.832000	73.841655	16.192283	83.044566	-2.901917E-5	-3.204800E-5	-4.491370E-5	-3.543168E-5	-0.650834
	61.832000	61.346977	16.198415	83.045791	-2.817933E-5	-3.174456E-5	-4.565655E-5	-3.622625E-5	-0.649609
	62.832000	57.976420	16.162697	83.038511	-2.899843E-5	-3.195383E-5	-4.490324E-5	-3.569305E-5	-0.656889
	63.832000	33.287624	16.145253	82.991331	-2.861480E-5	-3.148296E-5	-4.465213E-5	-3.627853E-5	-0.704069
	64.832000	32.557694	16.132801	82.979782	-2.929911E-5	-3.210032E-5	-4.512295E-5	-3.533758E-5	-0.715618
	65.832000	28.811437	16.129675	82.966937	-2.901917E-5	-3.159807E-5	-4.500786E-5	-3.569305E-5	-0.728463
	66.832000	31.065632	16.090615	82.982547	-2.854223E-5	-3.131555E-5	-4.498694E-5	-3.547350E-5	-0.712853
	67.832000	18.903716	16.085127	82.930397	-3.020115E-5	-3.087608E-5	-4.523804E-5	-3.721947E-5	-0.765003
	68.832000	20.374310	16.064370	82.882168	-2.958942E-5	-3.210032E-5	-4.595997E-5	-3.627853E-5	-0.813232
	69.832000	14.406062	16.040191	82.879193	-3.021152E-5	-3.099117E-5	-4.432779E-5	-3.544213E-5	-0.816207
	70.832000	-2.199837	16.033280	82.874433	-2.911248E-5	-3.156667E-5	-4.497647E-5	-3.613216E-5	-0.820967
	71.832000	-5.967562	16.020064	82.855953	-2.898806E-5	-3.111674E-5	-4.473583E-5	-3.605898E-5	-0.839447
	72.832000	-21.618113	16.027189	82.851193	-2.880143E-5	-3.152482E-5	-4.449519E-5	-3.594397E-5	-0.844207
	73.832000	-26.985242	15.993134	82.843739	-2.898806E-5	-3.161899E-5	-4.417085E-5	-3.592306E-5	-0.851661
	74.832000	-31.203806	15.978106	82.852663	-2.772312E-5	-3.113767E-5	-4.506018E-5	-3.660263E-5	-0.842737
	75.832000	-41.798520	15.954611	82.805974	-2.728766E-5	-3.136787E-5	-4.436964E-5	-3.602761E-5	-0.889426
	76.832000	-42.238625	15.941595	82.809719	-2.856296E-5	-3.214217E-5	-4.551007E-5	-3.666536E-5	-0.885681
	77.832000	-58.747915	15.946265	82.851823	-2.764018E-5	-3.178641E-5	-4.477768E-5	-3.610080E-5	-0.843577
	78.832000	-73.775878	15.937020	82.791589	-2.755723E-5	-3.140972E-5	-4.431732E-5	-3.647717E-5	-0.903811
	79.832000	-68.247735	15.893693	82.779060	-2.909175E-5	-3.133647E-5	-4.427547E-5	-3.621580E-5	-0.916340
	80.832000	-66.959624	15.864657	82.734785	-2.827265E-5	-3.100164E-5	-4.386743E-5	-3.645626E-5	-0.960615
	81.832000	-87.751884	15.855157	82.715081	-2.923690E-5	-3.180734E-5	-4.429640E-5	-3.669673E-5	-0.980319
	82.832000	-99.946002	15.856257	82.695341	-2.788902E-5	-3.211078E-5	-4.446380E-5	-3.612170E-5	-1.000059
	83.832000	-119.278403	15.839445	82.653796	-2.764018E-5	-3.153528E-5	-4.468352E-5	-3.670718E-5	-1.041604
	84.832000	-98.314395	15.822310	82.633252	-2.850075E-5	-3.109581E-5	-4.411853E-5	-3.554669E-5	-1.062148
	85.832000	-104.465126	15.801351	82.616697	-2.919543E-5	-3.098071E-5	-4.444288E-5	-3.660263E-5	-1.078703
	86.832000	-125.987315	15.777843	82.610432	-2.922653E-5	-3.100164E-5	-4.424409E-5	-3.591261E-5	-1.084968
	87.832000	-126.717245	15.775588	82.598147	-2.768165E-5	-3.160853E-5	-4.510203E-5	-3.712538E-5	-1.097253
	88.832000	-131.966298	15.760534	82.597237	-2.844891E-5	-3.088654E-5	-4.445334E-5	-3.619489E-5	-1.098163
	89.832000	-128.853363	15.738085	82.587507	-2.911248E-5	-3.128416E-5	-4.489277E-5	-3.617398E-5	-1.107893
	90.832000	-164.995614	15.725472	82.586737	-2.943390E-5	-3.103303E-5	-4.449519E-5	-3.735539E-5	-1.108663
	91.832000	-161.496245	15.710458	82.574733	-2.815859E-5	-3.203754E-5	-4.565655E-5	-3.650854E-5	-1.120667
	92.832000	-175.418579	15.688211	82.530073	-2.946500E-5	-3.138879E-5	-4.385696E-5	-3.592306E-5	-1.165327
	93.832000	-173.260993	15.675759	82.519014	-2.851112E-5	-3.221542E-5	-4.372095E-5	-3.601716E-5	-1.176386
	94.832000	-172.434455	15.663186	82.462104	-2.944427E-5	-3.208986E-5	-4.428594E-5	-3.586033E-5	-1.233296
	95.832000	-189.566333	15.635867	82.466164	-2.859407E-5	-3.225727E-5	-4.484046E-5	-3.568260E-5	-1.229236
	96.832000	-200.912445	15.651741	82.464764	-2.920580E-5	-3.158760E-5	-4.524850E-5	-3.745994E-5	-1.230636
	97.832000	-202.501115	15.612909	82.458779	-2.994194E-5	-3.211078E-5	-4.488231E-5	-3.623671E-5	-1.236621
	98.832000	-211.399816	15.573447	82.447650	-2.943390E-5	-3.156667E-5	-4.471491E-5	-3.627853E-5	-1.247750
	99.832000	-207.696497	15.574762	82.431550	-2.981752E-5	-3.147250E-5	-4.534267E-5	-3.685355E-5	-1.263850
	100.832000	-217.861841	15.568885	82.430675	-2.931985E-5	-3.156667E-5	-4.557285E-5	-3.675946E-5	-1.264725
	101.832000	-243.087350	15.566966	82.386856	-2.841780E-5	-3.176548E-5	-4.494508E-5	-3.701038E-5	-1.308544
	102.832000	-238.782912	15.530335	82.353221	-2.874959E-5	-3.256072E-5	-4.600182E-5	-3.671764E-5	-1.342179
	103.832000	-236.818542	15.512208	82.337576	-2.909174E-5	-3.112720E-5	-4.479861E-5	-3.653990E-5	-1.357824
	104.832000	-266.638315	15.496294	82.331381	-2.789939E-5	-3.154575E-5	-4.489277E-5	-3.738675E-5	-1.364019
	105.832000	-266.284084	15.465459	82.327706	-2.953758E-5	-3.218403E-5	-4.541591E-5	-3.666536E-5	-1.367694
	106.832000	-276.234743	15.468707	82.278357	-2.832449E-5	-3.223635E-5	-4.477768E-5	-3.721947E-5	-1.417043
	107.832000	-276.438694	15.455007	82.290992	-2.858369E-5	-3.240376E-5	-4.563563E-5	-3.694765E-5	-1.404408
	108.832000	-281.784355	15.436114	82.277237	-2.958942E-5	-3.294787E-5	-4.583442E-5	-3.636217E-5	-1.418163
	109.832000	-286.936799	15.416779	82.266072	-2.977605E-5	-3.236191E-5	-4.507064E-5	-3.600670E-5	-1.429328
	110.832000	-293.613508	15.391017	82.272932	-3.012857E-5	-3.251886E-5	-4.616922E-5	-3.770040E-5	-1.422468
	111.832000	-295.277319	15.371842	82.250953	-2.918506E-5	-3.278045E-5	-4.578210E-5	-3.720902E-5	-1.444447
	112.832000	-301.084553	15.356385	82.211613	-2.940279E-5	-3.168177E-5	-4.464167E-5	-3.691628E-5	-1.483787
	113.832000	-306.923990	15.343316	82.196913	-2.816896E-5	-3.155621E-5	-4.438010E-5	-3.639353E-5	-1.498487
	114.832000	-326.181251	15.322357	82.198908	-2.954795E-5	-3.174456E-5	-4.518573E-5	-3.658172E-5	-1.496492
	115.832000	-330.120724	15.308483	82.195339	-2.778534E-5	-3.175502E-5	-4.504971E-5	-3.686401E-5	-1.500061
	116.832000	-342.819353	15.304001	82.173779	-2.833486E-5	-3.163992E-5	-4.449519E-5	-3.683264E-5	-1.521621
	117.832000	-342.411451	15.291227	82.168704	-2.886364E-5	-3.193290E-5	-4.506018E-5	-3.674900E-5	-1.526696
	118.832000	-349.453125	15.272711	82.173954	-2.926800E-5	-3.201661E-5	-4.498693E-5	-3.583942E-5	-1.521446
	119.832000	-355.711199	15.244426	82.146444	-2.833486E-5	-3.179687E-5	-4.500786E-5	-3.616352E-5	-1.548956
	120.832000	-368.216611	15.226043	82.112285	-2.910211E-5	-3.152482E-5	-4.496601E-5	-3.662354E-5	-1.583115
	121.832000	-359.554064	15.222715	82.133809	-2.909175E-5	-3.198522E-5	-4.478815E-5	-3.622625E-5	-1.561591
	122.832000	-378.457094	15.189801	82.105215	-2.913322E-5	-3.193290E-5	-4.401390E-5	-3.545259E-5	-1.590185
	123.832000	-371.715979	15.162724	82.081135	-2.894659E-5	-3.170270E-5	-4.407668E-5	-3.576624E-5	-1.614265
	124.832000	-394.655092	15.162227	82.017786	-2.909174E-5	-3.170270E-5	-4.511249E-5	-3.678037E-5	-1.677614
	125.832000	-388.032054	15.143241	82.022861	-2.885327E-5	-3.145158E-5	-4.495555E-5	-3.609034E-5	-1.672539
	126.832000	-395.438693	15.116942	81.996857	-2.836596E-5	-3.146204E-5	-4.453704E-5	-3.662354E-5	-1.698543
	127.832000	-393.495792	15.105711	81.963782	-2.809639E-5	-3.180734E-5	-4.473583E-5	-3.543168E-5	-1.731618
	128.832000	-415.533226	15.073937	81.935748	-2.836596E-5	-3.145157E-5	-4.390928E-5	-3.594397E-5	-1.759652
	129.832000	-426.922275	15.072287	81.911808	-2.823117E-5	-3.203754E-5	-4.507064E-5	-3.620534E-5	-1.783592
	130.832000	-422.005985	15.035481	81.915553	-2.953758E-5	-3.105396E-5	-4.439056E-5	-3.655036E-5	-1.779847
	131.832000	-440.748001	15.045223	81.901973	-2.849038E-5	-3.198522E-5	-4.604367E-5	-3.762722E-5	-1.793427
	132.832000	-437.720940	15.016844	81.867184	-2.943390E-5	-3.203754E-5	-4.530082E-5	-3.724038E-5	-1.828216
	133.832000	-443.152475	14.991605	81.902428	-2.945463E-5	-3.157714E-5	-4.514388E-5	-3.761676E-5	-1.792972
	134.832000	-441.284714	14.987190	81.870894	-2.931984E-5	-3.188058E-5	-4.461028E-5	-3.641444E-5	-1.824506
	135.832000	-447.574990	14.975906	81.859974	-2.947537E-5	-3.150389E-5	-4.500786E-5	-3.689537E-5	-1.835426
	136.832000	-447.875550	14.945340	81.828439	-2.919542E-5	-3.197475E-5	-4.508110E-5	-3.629944E-5	-1.866961
	137.832000	-450.956282	14.947312	81.831974	-2.850075E-5	-3.187012E-5	-4.504971E-5	-3.702083E-5	-1.863426
	138.832000	-448.122438	14.920087	81.824764	-2.870812E-5	-3.221542E-5	-4.522758E-5	-3.683264E-5	-1.870636
	139.832000	-465.694420	14.920919	81.816610	-2.952721E-5	-3.196429E-5	-4.442195E-5	-3.733448E-5	-1.878790
	140.832000	-464.127218	14.889132	81.804185	-2.873922E-5	-3.232005E-5	-4.607506E-5	-3.738675E-5	-1.891215
	141.832000	-471.233298	14.870548	81.710596	-2.902953E-5	-3.133647E-5	-4.560423E-5	-3.726129E-5	-1.984804
	142.832000	-484.543780	14.857600	81.777375	-2.908137E-5	-3.197475E-5	-4.552053E-5	-3.707310E-5	-1.918025
	143.832000	-493.463949	14.828604	81.734816	-2.998342E-5	-3.121091E-5	-4.571932E-5	-3.709401E-5	-1.960584
	144.832000	-468.764418	14.831019	81.671747	-2.945463E-5	-3.142018E-5	-4.519619E-5	-3.639353E-5	-2.023653
	145.832000	-469.676830	14.813911	81.689177	-2.981752E-5	-3.158760E-5	-4.514387E-5	-3.725084E-5	-2.006223
	146.832000	-467.089874	14.779346	81.674407	-2.954795E-5	-3.201661E-5	-4.530082E-5	-3.732402E-5	-2.020993
	147.832000	-468.903964	14.759515	81.679902	-2.889475E-5	-3.202707E-5	-4.570886E-5	-3.690582E-5	-2.015498
	148.832000	-477.480637	14.760615	81.666252	-2.892585E-5	-3.196429E-5	-4.479861E-5	-3.613216E-5	-2.029148
	149.832000	-462.774702	14.741709	81.669857	-2.883254E-5	-3.270721E-5	-4.571933E-5	-3.643535E-5	-2.025543
	150.832000	-474.840009	14.712015	81.699396	-2.948574E-5	-3.241422E-5	-4.518573E-5	-3.548395E-5	-1.996004
	151.832000	-484.898010	14.686212	81.676612	-2.958942E-5	-3.184919E-5	-4.376280E-5	-3.614261E-5	-2.018788
	152.832000	-477.985147	14.678698	81.661597	-2.941316E-5	-3.225727E-5	-4.509156E-5	-3.653990E-5	-2.033803
	153.832000	-463.976939	14.651071	81.651657	-2.962053E-5	-3.212124E-5	-4.520665E-5	-3.706265E-5	-2.043743
	154.832000	-476.138855	14.655552	81.653512	-2.956868E-5	-3.105395E-5	-4.398252E-5	-3.625762E-5	-2.041888
	155.832000	-488.021680	14.620827	81.647072	-3.004562E-5	-3.157714E-5	-4.468352E-5	-3.684309E-5	-2.048328
	156.832000	-470.009593	14.610629	81.642347	-2.956869E-5	-3.087607E-5	-4.443241E-5	-3.625762E-5	-2.053053
	157.832000	-473.680709	14.589321	81.637377	-2.883254E-5	-3.088654E-5	-4.394067E-5	-3.565123E-5	-2.058023
	158.832000	-482.117837	14.581995	81.624148	-2.915395E-5	-3.048892E-5	-4.363725E-5	-3.614262E-5	-2.071252
	159.832000	-488.139757	14.538897	81.588168	-2.944427E-5	-3.078190E-5	-4.361632E-5	-3.619489E-5	-2.107232
	160.832000	-484.715528	14.526874	81.591003	-2.858369E-5	-3.192244E-5	-4.539498E-5	-3.669673E-5	-2.104397
	161.832000	-504.284083	14.510666	81.625688	-2.911248E-5	-3.222588E-5	-4.509156E-5	-3.696855E-5	-2.069712
	162.832000	-509.007157	14.503755	81.625093	-2.901916E-5	-3.237237E-5	-4.580303E-5	-3.735539E-5	-2.070307
	163.832000	-494.043599	14.487614	81.588868	-2.825191E-5	-3.115859E-5	-4.483000E-5	-3.611125E-5	-2.106532
	164.832000	-498.906219	14.451238	81.578718	-2.967237E-5	-3.197475E-5	-4.537406E-5	-3.636217E-5	-2.116682
	165.832000	-489.213183	14.446085	81.563529	-2.943390E-5	-3.204800E-5	-4.522758E-5	-3.681173E-5	-2.131871
	166.832000	-512.098624	14.444596	81.552014	-3.007673E-5	-3.187012E-5	-4.416038E-5	-3.601716E-5	-2.143386
	167.832000	-513.225721	14.418323	81.553414	-2.925764E-5	-3.175502E-5	-4.561470E-5	-3.714629E-5	-2.141986
	168.832000	-516.145440	14.410514	81.549144	-2.980716E-5	-3.194336E-5	-4.557285E-5	-3.745994E-5	-2.146256
	169.832000	-513.751700	14.396278	81.540359	-2.962052E-5	-3.114813E-5	-4.512295E-5	-3.782586E-5	-2.155041
	170.832000	-515.737538	14.365564	81.539344	-3.012857E-5	-3.243515E-5	-4.466259E-5	-3.676991E-5	-2.156056
	171.832000	-523.144177	14.331925	81.514564	-2.989010E-5	-3.224681E-5	-4.532174E-5	-3.735539E-5	-2.180836
	172.832000	-491.263426	14.339788	81.509734	-2.995231E-5	-3.276999E-5	-4.526943E-5	-3.715674E-5	-2.185666
	173.832000	-500.709574	14.312939	81.497905	-3.011821E-5	-3.217356E-5	-4.477768E-5	-3.720902E-5	-2.197495
	174.832000	-509.554604	14.299051	81.484605	-3.053294E-5	-3.200614E-5	-4.527989E-5	-3.714629E-5	-2.210795
	175.832000	-523.272988	14.291135	81.472215	-2.912285E-5	-3.252933E-5	-4.617968E-5	-3.758539E-5	-2.223185
	176.832000	-527.437880	14.258301	81.451425	-2.969310E-5	-3.218403E-5	-4.515434E-5	-3.833815E-5	-2.243975
	177.832000	-516.961243	14.239328	81.448065	-2.891548E-5	-3.222588E-5	-4.517527E-5	-3.722993E-5	-2.247335
	178.832000	-515.522852	14.221804	81.446316	-2.841780E-5	-3.267582E-5	-4.615876E-5	-3.676991E-5	-2.249084
	179.832000	-519.730682	14.217658	81.447225	-2.961016E-5	-3.244562E-5	-4.525897E-5	-3.680128E-5	-2.248175
	180.832000	-522.102954	14.195639	81.451215	-2.923690E-5	-3.240376E-5	-4.638894E-5	-3.816042E-5	-2.244185
	181.832000	-522.682604	14.176492	81.448485	-2.964126E-5	-3.303158E-5	-4.523804E-5	-3.665491E-5	-2.246915
	182.832000	-540.866439	14.172775	81.444251	-2.840743E-5	-3.240376E-5	-4.566701E-5	-3.854725E-5	-2.251149
	183.832000	-520.986590	14.152326	81.439946	-3.106172E-5	-3.287463E-5	-4.661912E-5	-3.732402E-5	-2.255454
	184.832000	-543.496333	14.136185	81.438616	-3.022189E-5	-3.332456E-5	-4.657727E-5	-3.745993E-5	-2.256784
	185.832000	-540.190181	14.118875	81.434591	-3.068846E-5	-3.273860E-5	-4.459982E-5	-3.816041E-5	-2.260809
	186.832000	-543.077697	14.104558	81.418596	-3.018042E-5	-3.310482E-5	-4.508110E-5	-3.730311E-5	-2.276804
	187.832000	-542.390704	14.086619	81.411806	-3.050183E-5	-3.227820E-5	-4.538452E-5	-3.808723E-5	-2.283594
	188.832000	-551.063985	14.071537	81.403476	-3.122761E-5	-3.345012E-5	-4.603321E-5	-3.763767E-5	-2.291924
	189.832000	-535.027002	14.045412	81.414151	-3.071956E-5	-3.296880E-5	-4.551007E-5	-3.672809E-5	-2.281249
	190.832000	-552.416502	14.042756	81.414536	-2.999379E-5	-3.261303E-5	-4.478814E-5	-3.767949E-5	-2.280864
	191.832000	-553.232306	14.031780	81.380307	-3.111356E-5	-3.336641E-5	-4.609598E-5	-3.851588E-5	-2.315093
	192.832000	-543.056228	14.018026	81.354547	-3.080251E-5	-3.321992E-5	-4.591812E-5	-3.790950E-5	-2.340853
	193.832000	-564.342264	13.984159	81.331972	-3.067809E-5	-3.218403E-5	-4.503925E-5	-3.788859E-5	-2.363428
	194.832000	-560.853630	13.970433	81.321823	-2.980715E-5	-3.205846E-5	-4.584488E-5	-3.928954E-5	-2.373577
	195.832000	-567.809430	13.951943	81.296133	-3.022188E-5	-3.326178E-5	-4.655634E-5	-3.765858E-5	-2.399267
	196.832000	-554.885382	13.946227	81.276988	-2.965163E-5	-3.271767E-5	-4.558331E-5	-3.808723E-5	-2.418412
	197.832000	-565.898732	13.926422	81.280558	-3.067809E-5	-3.348151E-5	-4.583441E-5	-3.751221E-5	-2.414842
	198.832000	-563.118559	13.896527	81.252839	-3.038778E-5	-3.343966E-5	-4.669236E-5	-3.843224E-5	-2.442561
	199.832000	-574.754496	13.883981	81.251509	-2.982789E-5	-3.265489E-5	-4.643079E-5	-3.845315E-5	-2.443891
	200.832000	-557.858772	13.863049	81.214094	-2.992121E-5	-3.288509E-5	-4.603321E-5	-3.875634E-5	-2.481306
	201.832000	-564.793103	13.856810	81.189245	-3.114466E-5	-3.331409E-5	-4.626338E-5	-3.831724E-5	-2.506155
	202.832000	-565.276145	13.838226	81.184520	-2.971384E-5	-3.302112E-5	-4.629477E-5	-3.898635E-5	-2.510880
	203.832000	-575.269741	13.814611	81.189770	-3.114466E-5	-3.252933E-5	-4.544730E-5	-3.801405E-5	-2.505630
	204.832000	-576.600789	13.804024	81.209299	-3.042925E-5	-3.383727E-5	-4.674467E-5	-3.839042E-5	-2.486101
	205.832000	-581.785436	13.773498	81.215599	-2.995231E-5	-3.329317E-5	-4.654588E-5	-3.823360E-5	-2.479801
	206.832000	-588.397740	13.757732	81.208914	-3.109282E-5	-3.291648E-5	-4.652495E-5	-3.841133E-5	-2.486486
	207.832000	-583.835680	13.731970	81.191520	-3.061588E-5	-3.310482E-5	-4.653541E-5	-3.878771E-5	-2.503880
	208.832000	-583.277498	13.727367	81.191520	-3.013894E-5	-3.325131E-5	-4.590765E-5	-3.828587E-5	-2.503880
	209.832000	-598.487944	13.702718	81.187285	-3.131055E-5	-3.303158E-5	-4.583442E-5	-3.782586E-5	-2.508115
	210.832000	-591.660955	13.699673	81.184450	-3.098914E-5	-3.212124E-5	-4.569840E-5	-3.816042E-5	-2.510950
	211.832000	-594.258646	13.672367	81.184660	-3.083361E-5	-3.267582E-5	-4.588673E-5	-3.819178E-5	-2.510740
	212.832000	-586.132811	13.652643	81.160790	-3.115502E-5	-3.301065E-5	-4.553100E-5	-3.806632E-5	-2.534610
	213.832000	-588.666096	13.631818	81.157360	-3.099951E-5	-3.397330E-5	-4.684930E-5	-3.841133E-5	-2.538040
	214.832000	-598.487944	13.630195	81.128556	-3.102024E-5	-3.286416E-5	-4.619014E-5	-3.840088E-5	-2.566844
	215.832000	-594.247911	13.630315	81.138846	-3.171491E-5	-3.358615E-5	-4.613783E-5	-3.744948E-5	-2.556554
	216.832000	-597.586266	13.603144	81.131251	-3.133129E-5	-3.384774E-5	-4.685976E-5	-3.811860E-5	-2.564149
	217.832000	-590.995431	13.578831	81.116376	-3.067808E-5	-3.240376E-5	-4.555192E-5	-3.757494E-5	-2.579024
	218.832000	-590.244033	13.569479	81.102306	-3.096840E-5	-3.300019E-5	-4.508110E-5	-3.801405E-5	-2.593094
	219.832000	-606.001926	13.546869	81.071682	-3.137277E-5	-3.341873E-5	-4.637847E-5	-3.848452E-5	-2.623718
	220.832000	-603.973150	13.528608	81.070912	-3.100988E-5	-3.376403E-5	-4.591812E-5	-3.780495E-5	-2.624488
	221.832000	-600.624061	13.508373	81.061252	-3.063662E-5	-3.300019E-5	-4.571933E-5	-3.732402E-5	-2.634148
	222.832000	-605.594024	13.494821	81.050507	-3.127945E-5	-3.337688E-5	-4.604367E-5	-3.805586E-5	-2.644893
	223.832000	-600.999761	13.479216	81.048862	-2.999378E-5	-3.288509E-5	-4.615876E-5	-3.828587E-5	-2.646538
	224.832000	-607.021680	13.476989	81.051067	-3.040851E-5	-3.234098E-5	-4.506018E-5	-3.851588E-5	-2.644333
	225.832000	-606.849932	13.450126	81.021073	-2.970347E-5	-3.295833E-5	-4.536359E-5	-3.786768E-5	-2.674327
	226.832000	-599.496964	13.415038	81.030102	-2.943389E-5	-3.229912E-5	-4.572979E-5	-3.840088E-5	-2.665298
	227.832000	-610.585454	13.438479	81.007143	-3.083362E-5	-3.307343E-5	-4.524851E-5	-3.852633E-5	-2.688257
	228.832000	-592.669975	13.393449	81.002803	-3.006636E-5	-3.343966E-5	-4.636801E-5	-3.877725E-5	-2.692597
	229.832000	-604.670877	13.382876	81.010468	-3.056404E-5	-3.297926E-5	-4.504971E-5	-3.744948E-5	-2.684932
	230.832000	-603.372032	13.373282	81.009593	-3.107208E-5	-3.320946E-5	-4.531128E-5	-3.812905E-5	-2.685807
	231.832000	-606.044863	13.346902	81.012918	-3.071956E-5	-3.307343E-5	-4.568794E-5	-3.707311E-5	-2.682482
	232.832000	-599.475496	13.337322	80.991848	-3.093729E-5	-3.205846E-5	-4.548914E-5	-3.863089E-5	-2.703552
	233.832000	-591.950780	13.316484	80.942569	-3.014931E-5	-3.378495E-5	-4.580303E-5	-3.760630E-5	-2.752831
	234.832000	-609.619371	13.291312	80.930844	-3.155939E-5	-3.281184E-5	-4.524851E-5	-3.805587E-5	-2.764556
	235.832000	-608.567414	13.276123	80.929969	-3.078177E-5	-3.269674E-5	-4.514388E-5	-3.733448E-5	-2.765431
	236.832000	-611.798426	13.278108	80.937249	-3.142460E-5	-3.471621E-5	-4.603321E-5	-3.837997E-5	-2.758151
	237.832000	-607.901890	13.255835	80.934904	-3.121724E-5	-3.315714E-5	-4.542637E-5	-3.800359E-5	-2.760496
	238.832000	-589.589243	13.237157	80.930984	-3.121724E-5	-3.295833E-5	-4.587627E-5	-3.831724E-5	-2.764416
	239.832000	-614.235103	13.247006	80.923354	-3.158013E-5	-3.333502E-5	-4.470445E-5	-3.826496E-5	-2.772046
	240.832000	-605.486681	13.217339	80.931509	-3.012858E-5	-3.313621E-5	-4.631570E-5	-3.812905E-5	-2.763891
	241.832000	-589.986410	13.210844	80.921674	-3.147644E-5	-3.405701E-5	-4.659819E-5	-3.860998E-5	-2.773726
	242.832000	-606.334688	13.188047	80.903720	-3.032557E-5	-3.333502E-5	-4.613783E-5	-3.837997E-5	-2.791680
	243.832000	-611.691083	13.165532	80.901795	-3.087509E-5	-3.361754E-5	-4.687022E-5	-3.831724E-5	-2.793605
	244.832000	-620.482442	13.173757	80.898400	-3.125871E-5	-3.350244E-5	-4.658773E-5	-3.717765E-5	-2.797000
	245.832000	-605.250527	13.148317	80.886115	-3.085435E-5	-3.380588E-5	-4.611691E-5	-3.822315E-5	-2.809285
	246.832000	-602.481088	13.136912	80.870925	-3.018041E-5	-3.292694E-5	-4.568794E-5	-3.751221E-5	-2.824475
	247.832000	-609.737448	13.099878	80.826791	-3.147645E-5	-3.326178E-5	-4.566701E-5	-3.779449E-5	-2.868609
	248.832000	-622.360937	13.078718	80.848806	-3.068846E-5	-3.339780E-5	-4.620061E-5	-3.813950E-5	-2.846594
	249.832000	-622.081846	13.069393	80.875195	-3.036704E-5	-3.388959E-5	-4.734104E-5	-3.908045E-5	-2.820205
	250.832000	-605.164653	13.049105	80.867565	-3.086472E-5	-3.406747E-5	-4.598089E-5	-3.803496E-5	-2.827835
	251.832000	-601.847767	13.041027	80.858990	-3.133129E-5	-3.390006E-5	-4.762353E-5	-3.887135E-5	-2.836410
	252.832000	-616.983073	13.006302	80.800506	-3.114466E-5	-3.364893E-5	-4.749798E-5	-3.854725E-5	-2.894894
	253.832000	-614.449788	12.994387	80.734707	-3.102024E-5	-3.436045E-5	-4.721549E-5	-3.809769E-5	-2.960693
	254.832000	-619.977931	12.990012	80.746642	-3.054330E-5	-3.413025E-5	-4.722595E-5	-3.851588E-5	-2.948758
	255.832000	-609.919930	12.981653	80.675698	-3.092693E-5	-3.395238E-5	-4.696439E-5	-3.760631E-5	-3.019702
	256.832000	-625.602683	12.951879	80.671814	-3.191191E-5	-3.378496E-5	-4.747706E-5	-3.819178E-5	-3.023586
	257.832000	-624.239433	12.938488	80.692533	-3.086472E-5	-3.386866E-5	-4.783278E-5	-3.946728E-5	-3.002867
	258.832000	-606.205876	12.911236	80.675873	-3.141424E-5	-3.422443E-5	-4.730965E-5	-3.797223E-5	-3.019527
	259.832000	-603.007067	12.884454	80.654454	-3.060551E-5	-3.485224E-5	-4.860702E-5	-3.879816E-5	-3.040946
	260.832000	-608.438602	12.877289	80.658969	-3.088546E-5	-3.420350E-5	-4.780140E-5	-3.977047E-5	-3.036431
	261.832000	-630.100338	12.837934	80.657604	-3.196375E-5	-3.484178E-5	-4.780140E-5	-3.857861E-5	-3.037796
	262.832000	-634.887818	12.839115	80.649624	-3.216075E-5	-3.445463E-5	-4.704809E-5	-3.789904E-5	-3.045776
	263.832000	-610.402972	12.824288	80.649099	-3.160086E-5	-3.425582E-5	-4.855471E-5	-3.931045E-5	-3.046301
	264.832000	-621.727616	12.811433	80.645459	-3.148681E-5	-3.410933E-5	-4.697485E-5	-3.895499E-5	-3.049941
	265.832000	-615.974053	12.800484	80.638704	-3.099950E-5	-3.489409E-5	-4.706901E-5	-3.920590E-5	-3.056696
	266.832000	-607.429582	12.777687	80.624354	-3.114466E-5	-3.498827E-5	-4.772816E-5	-3.856816E-5	-3.071046
	267.832000	-635.467468	12.758446	80.600940	-3.227480E-5	-3.417211E-5	-4.712133E-5	-3.921636E-5	-3.094460
	268.832000	-616.049192	12.733596	80.592155	-3.138313E-5	-3.489409E-5	-4.695392E-5	-3.810814E-5	-3.103245
	269.832000	-611.229510	12.730349	80.569125	-3.106172E-5	-3.402562E-5	-4.692253E-5	-3.901771E-5	-3.126275
	270.832000	-603.887276	12.692296	80.576580	-3.120687E-5	-3.452787E-5	-4.796880E-5	-4.002138E-5	-3.118820
	271.832000	-611.873566	12.683427	80.561565	-3.139350E-5	-3.532310E-5	-4.773862E-5	-3.911181E-5	-3.133835
	272.832000	-617.959891	12.669043	80.556351	-3.196375E-5	-3.423489E-5	-4.752937E-5	-3.882953E-5	-3.139049
	273.832000	-615.383668	12.651559	80.549281	-3.211927E-5	-3.471621E-5	-4.676560E-5	-3.879817E-5	-3.146119
	274.832000	-596.373295	12.612781	80.556421	-3.098913E-5	-3.497780E-5	-4.859656E-5	-3.933136E-5	-3.138979
	275.832000	-606.914338	12.613667	80.555021	-3.142460E-5	-3.484178E-5	-4.724688E-5	-3.882953E-5	-3.140379
	276.832000	-612.077516	12.578217	80.582460	-3.123797E-5	-3.466390E-5	-4.744567E-5	-3.883998E-5	-3.112940
	277.832000	-601.289586	12.593741	80.575075	-3.079214E-5	-3.494641E-5	-4.830361E-5	-3.849497E-5	-3.120325
	278.832000	-589.170607	12.561968	80.562860	-3.169418E-5	-3.510337E-5	-4.802111E-5	-3.797223E-5	-3.132540
	279.832000	-617.627129	12.536232	80.551801	-3.107208E-5	-3.506151E-5	-4.746659E-5	-3.868316E-5	-3.143599
	280.832000	-601.794096	12.516119	80.552956	-3.154902E-5	-3.513476E-5	-4.789556E-5	-3.911181E-5	-3.142444
	281.832000	-607.558393	12.508967	80.537311	-3.115503E-5	-3.482085E-5	-4.807343E-5	-3.978092E-5	-3.158089
	282.832000	-594.859764	12.478763	80.530906	-3.096840E-5	-3.528125E-5	-4.771769E-5	-3.911181E-5	-3.164494
	283.832000	-603.243221	12.476174	80.523171	-3.030483E-5	-3.456972E-5	-4.770724E-5	-3.942546E-5	-3.172229
	284.832000	-593.818541	12.461588	80.526776	-3.081287E-5	-3.471621E-5	-4.781186E-5	-3.893408E-5	-3.168624
	285.832000	-605.282730	12.449646	80.481907	-3.120687E-5	-3.441277E-5	-4.713179E-5	-3.919545E-5	-3.213493
	286.832000	-591.693158	12.446963	80.475292	-2.991084E-5	-3.481039E-5	-4.734104E-5	-3.961364E-5	-3.220108
	287.832000	-609.630105	12.406575	80.477882	-3.141423E-5	-3.481039E-5	-4.679698E-5	-3.873543E-5	-3.217518
	288.832000	-592.251339	12.397679	80.480332	-3.074030E-5	-3.508244E-5	-4.800019E-5	-3.917454E-5	-3.215068
	289.832000	-591.134976	12.380383	80.500701	-3.122761E-5	-3.544866E-5	-4.800019E-5	-3.871452E-5	-3.194699
	290.832000	-599.089062	12.344973	80.489152	-3.057441E-5	-3.490456E-5	-4.779094E-5	-3.890271E-5	-3.206248
	291.832000	-591.618018	12.364993	80.468782	-3.149718E-5	-3.472668E-5	-4.652495E-5	-3.878771E-5	-3.226618
	292.832000	-577.921103	12.329234	80.466507	-3.066772E-5	-3.540681E-5	-4.840823E-5	-3.869361E-5	-3.228893
	293.832000	-572.586176	12.306974	80.454222	-3.061588E-5	-3.504059E-5	-4.831407E-5	-3.956137E-5	-3.241178
	294.832000	-574.153378	12.284163	80.457302	-3.216075E-5	-3.485224E-5	-4.863841E-5	-3.977047E-5	-3.238098
	295.832000	-584.748092	12.287746	80.440713	-3.072993E-5	-3.501966E-5	-4.869072E-5	-3.906999E-5	-3.254687
	296.832000	-564.331530	12.258106	80.422058	-3.098914E-5	-3.374310E-5	-4.722595E-5	-3.819178E-5	-3.273342
	297.832000	-565.490830	12.236369	80.412608	-3.111355E-5	-3.432906E-5	-4.736196E-5	-3.863088E-5	-3.282792
	298.832000	-570.761352	12.227929	80.405398	-3.059514E-5	-3.422443E-5	-4.728873E-5	-3.955092E-5	-3.290002
	299.832000	-536.218505	12.220804	80.400463	-3.040851E-5	-3.403608E-5	-4.700623E-5	-3.951955E-5	-3.294937
	300.832000	-566.446179	12.201214	80.392833	-3.028409E-5	-3.461158E-5	-4.763399E-5	-3.958228E-5	-3.302567
	301.832000	-566.124152	12.176565	80.390348	-3.138312E-5	-3.442323E-5	-4.740381E-5	-3.864134E-5	-3.305052
	302.832000	-560.306183	12.180591	80.392763	-3.258585E-5	-3.484178E-5	-4.739335E-5	-3.976001E-5	-3.302637
	303.832000	-540.469271	12.144040	80.369804	-3.186007E-5	-3.519754E-5	-4.741428E-5	-3.971819E-5	-3.325596
	304.832000	-563.687475	12.123417	80.350204	-3.115503E-5	-3.526032E-5	-4.796880E-5	-3.926863E-5	-3.345196
	305.832000	-568.281738	12.116386	80.348664	-3.259622E-5	-3.456972E-5	-4.655634E-5	-3.839042E-5	-3.346736
	306.832000	-553.296711	12.089429	80.328715	-3.135203E-5	-3.429767E-5	-4.640987E-5	-3.855770E-5	-3.366685
	307.832000	-552.255488	12.070765	80.315520	-3.078177E-5	-3.396284E-5	-4.723641E-5	-3.937318E-5	-3.379880
	308.832000	-573.176560	12.066324	80.304005	-3.117576E-5	-3.546959E-5	-4.756076E-5	-3.787813E-5	-3.391395
	309.832000	-547.285526	12.043956	80.278525	-3.256511E-5	-3.515568E-5	-4.773862E-5	-3.851588E-5	-3.416875
	310.832000	-554.896116	12.043138	80.279715	-3.071956E-5	-3.493595E-5	-4.778047E-5	-3.858907E-5	-3.415685
	311.832000	-569.902611	12.022514	80.293610	-3.184970E-5	-3.534403E-5	-4.771769E-5	-3.808723E-5	-3.401790
	312.832000	-553.135698	12.002629	80.282235	-3.195338E-5	-3.506151E-5	-4.831407E-5	-3.925818E-5	-3.413165
	313.832000	-560.402791	11.985146	80.273100	-3.062625E-5	-3.440231E-5	-4.783279E-5	-3.978092E-5	-3.422300
	314.832000	-553.543599	11.967085	80.234251	-3.060551E-5	-3.488363E-5	-4.698531E-5	-3.820223E-5	-3.461149
	315.832000	-570.675478	11.956270	80.206672	-3.153865E-5	-3.534403E-5	-4.789556E-5	-3.877725E-5	-3.488728
	316.832000	-559.994889	11.923276	80.169852	-3.115503E-5	-3.475807E-5	-4.715271E-5	-3.887135E-5	-3.525548
	317.832000	-559.651393	11.922162	80.156028	-3.238885E-5	-3.444416E-5	-4.705855E-5	-3.796177E-5	-3.539372
	318.832000	-557.976849	11.900505	80.139508	-3.258585E-5	-3.508244E-5	-4.706901E-5	-3.865179E-5	-3.555892
	319.832000	-556.506255	11.885518	80.146333	-3.190154E-5	-3.405701E-5	-4.699577E-5	-3.921636E-5	-3.549067
	320.832000	-551.901258	11.863123	80.148993	-3.222296E-5	-3.489409E-5	-4.780140E-5	-3.927909E-5	-3.546407
	321.832000	-552.470174	11.853999	80.144863	-3.087509E-5	-3.497780E-5	-4.634709E-5	-3.780495E-5	-3.550537
